2theta chi X Y I
63.036532   6.839871   870.900000   1551.460000   20197.240
60.231578   23.302894   536.410000   1670.290000   18766.410
77.310721   -1.142789   1021.470000   1242.390000   17584.780
71.592103   -12.855769   1245.630000   1367.410000   16332.310
59.710800   8.448273   840.140000   1635.560000   15095.920
70.010608   -15.331158   1295.070000   1405.960000   14148.220
73.383024   -32.085170   1674.770000   1379.110000   10888.380
121.278002   -26.737392   1542.200000   267.890000   10790.200
57.166485   -30.400867   1631.480000   1805.230000   9562.150
81.105949   23.966356   521.560000   1184.320000   9425.540
60.097364   -4.021093   1075.660000   1620.490000   9181.680
101.154879   -22.459290   1444.920000   770.350000   8913.930
65.206577   -21.802432   1430.540000   1535.470000   8560.350
80.143502   8.956982   830.360000   1189.310000   8531.830
95.820525   2.938616   944.750000   890.140000   8396.170
64.096469   19.146556   626.320000   1553.310000   7904.960
82.435761   -29.485158   1608.570000   1164.190000   7573.550
53.782063   29.399165   393.560000   1904.760000   6975.440
80.457701   10.768453   795.300000   1184.170000   6468.030
87.964587   -8.831234   1167.220000   1038.710000   5764.030
67.335450   -19.094756   1372.590000   1475.610000   5676.510
72.626320   -11.102535   1211.210000   1343.170000   5611.250
82.551551   -24.109772   1481.670000   1154.160000   5154.770
70.783035   -37.694509   1831.690000   1474.120000   5089.790
94.015541   24.483002   509.890000   916.980000   4961.290
89.731850   -10.318251   1195.950000   1005.120000   4960.330
65.307610   5.693229   892.700000   1497.320000   4857.600
80.543962   29.320717   395.500000   1205.600000   4685.690
89.883331   -27.013128   1548.710000   1002.460000   4660.360
106.630871   6.100912   884.960000   676.680000   4599.970
66.148015   27.169666   447.580000   1534.890000   4407.320
63.904993   37.949612   160.630000   1668.510000   3958.700
78.863090   37.161753   184.180000   1265.870000   3941.760
82.026537   -17.658957   1342.640000   1158.210000   3911.720
57.517951   38.242054   151.760000   1872.420000   3821.160
112.201151   -16.563949   1320.120000   541.730000   3593.530
74.931160   -27.853475   1568.750000   1327.750000   3542.940
109.667290   -37.631459   1829.800000   514.270000   3521.060
81.211871   20.124513   605.610000   1177.210000   3436.740
62.635358   -3.637397   1068.420000   1558.180000   3314.330
93.467739   12.637499   758.680000   933.160000   3307.400
113.178161   25.535289   485.820000   489.300000   3261.360
68.422147   23.539562   531.130000   1464.290000   3193.370
98.732300   19.025798   628.860000   825.130000   3126.830
54.885978   -32.507002   1685.860000   1897.430000   3023.830
98.874599   -5.423227   1102.180000   831.190000   2945.670
91.658582   10.734027   795.970000   968.280000   2861.410
95.578041   29.261599   396.960000   879.510000   2836.300
101.890767   -6.169852   1116.350000   772.050000   2825.660
90.733249   -31.526542   1660.240000   983.840000   2730.040
111.550467   7.830620   851.980000   570.940000   2695.510
48.894851   -11.201946   1213.150000   1957.320000   2684.010
118.320963   10.629674   798.000000   409.840000   2569.660
113.559940   8.606026   837.110000   525.330000   2560.300
49.500901   -11.271084   1214.500000   1937.290000   2558.860
102.612073   24.900912   500.380000   734.500000   2527.550
71.962392   22.797174   547.630000   1380.190000   2479.190
72.258218   -25.124744   1504.740000   1380.340000   2456.930
65.388904   -37.691842   1831.610000   1623.040000   2382.780
92.925300   2.206004   958.540000   944.960000   2330.960
103.638603   -25.997257   1524.880000   709.450000   2162.320
81.703057   -15.601641   1300.540000   1162.960000   2136.250
80.805817   27.319463   444.020000   1196.080000   2094.020
98.100447   -18.662952   1363.530000   838.310000   2088.830
127.097872   -4.148207   1078.060000   183.930000   2041.410
119.168962   -11.662741   1222.160000   386.580000   2032.390
108.732254   20.307335   601.710000   610.830000   1912.390
119.354513   25.986504   475.370000   326.580000   1886.680
68.362811   13.914250   733.360000   1439.850000   1837.710
117.408827   -20.347124   1399.140000   404.750000   1677.650
104.935649   29.205657   398.340000   671.090000   1633.080
55.458996   -1.293374   1024.300000   1741.040000   1539.320
102.295850   41.197757   57.850000   688.230000   1491.540
52.510408   -33.709245   1718.050000   1992.420000   1470.650
82.070314   -33.130346   1702.440000   1179.020000   1436.740
111.311813   -8.863459   1167.840000   575.040000   1421.340
102.922297   4.924257   907.270000   752.140000   1398.570
91.448364   -12.739844   1243.340000   972.100000   1387.010
76.025324   -12.482813   1238.270000   1274.330000   1368.800
86.639146   -7.760598   1146.680000   1063.790000   1349.000
75.896692   9.876058   812.620000   1274.480000   1314.200
83.863690   -32.236629   1678.740000   1136.800000   1309.730
60.135967   -1.311996   1024.650000   1618.160000   1293.170
75.408530   -15.537423   1299.240000   1290.810000   1288.180
75.251786   12.973104   752.050000   1290.750000   1184.110
81.136766   17.270475   665.380000   1175.760000   1181.590
92.580629   20.940092   588.140000   948.060000   1174.470
119.734410   -3.449137   1064.870000   384.120000   1164.880
124.494957   -13.985449   1268.060000   237.830000   1164.370
131.286787   1.213561   977.200000   54.680000   1161.160
79.870841   7.629899   855.820000   1194.000000   1124.240
83.696710   30.109324   375.860000   1137.430000   1114.900
99.293970   -21.526098   1424.530000   810.660000   1104.750
55.447728   21.008784   586.660000   1793.940000   1082.980
102.199274   14.159752   728.460000   760.020000   1064.830
123.375832   26.321484   467.560000   208.950000   1041.000
96.135791   -37.688509   1831.510000   853.790000   1027.310
86.911805   -42.404884   1982.960000   1078.640000   1024.810
125.449808   -37.522454   1826.540000   33.820000   1017.020
50.491469   12.653718   758.360000   1909.590000   1011.450
92.211603   36.293197   209.580000   948.430000   1006.850
93.734098   -14.017525   1268.700000   927.600000   1000.610
88.984463   -23.599490   1470.210000   1020.820000   973.340
109.894039   -2.733104   1051.380000   610.070000   952.820
118.241115   -31.730321   1665.520000   320.310000   949.140
108.098877   -14.011010   1268.570000   637.450000   942.180
69.077066   -31.681773   1664.260000   1483.550000   927.080
124.296817   32.847580   305.110000   126.180000   911.400
68.660060   29.573421   389.240000   1483.480000   907.410
112.270571   -21.115410   1415.640000   527.500000   901.030
102.891128   -1.376374   1025.860000   753.600000   886.620
76.331268   -10.502607   1199.530000   1266.210000   847.640
69.031427   4.724984   911.040000   1413.880000   809.660
122.711479   12.785923   755.750000   291.150000   799.300
76.252302   7.877114   851.090000   1265.830000   785.240
63.719985   -10.957397   1208.380000   1541.340000   776.750
115.076564   21.302329   580.320000   459.430000   770.970
51.188188   22.316382   558.220000   1935.820000   765.920
120.429988   -29.893732   1618.740000   270.760000   759.070
56.475420   -4.537763   1085.420000   1715.290000   749.870
120.852863   -16.717397   1323.260000   328.680000   736.310
90.296676   30.378289   369.090000   993.540000   721.620
98.951622   -37.675172   1831.110000   785.800000   705.450
51.439718   -24.554830   1491.740000   1943.280000   701.520
115.493763   -1.374778   1025.830000   486.630000   698.940
87.674916   -21.160332   1416.610000   1046.860000   695.120
89.186850   1.318381   975.230000   1015.280000   692.590
90.367204   -32.512680   1686.010000   991.820000   670.220
52.940125   -1.904554   1035.790000   1813.260000   667.900
64.541630   36.316360   208.910000   1635.930000   666.270
127.426681   -1.372650   1025.790000   176.080000   660.470
104.127750   10.325464   803.910000   724.640000   655.110
107.269244   -32.289159   1680.120000   604.200000   653.930
100.028218   4.080418   923.220000   809.190000   649.370
99.782430   -42.767901   1995.540000   747.220000   643.190
62.067907   -25.406859   1511.220000   1631.740000   634.930
99.795910   12.223745   766.830000   809.860000   631.880
105.015660   -28.206039   1577.250000   672.390000   627.510
87.625247   18.690661   635.890000   1047.120000   627.280
106.540465   -33.338168   1708.020000   617.400000   625.600
106.475552   -2.513707   1047.250000   681.380000   620.640
109.412805   -16.321062   1315.160000   604.780000   612.790
68.123951   -33.431329   1710.530000   1517.820000   593.930
104.013983   -12.977148   1248.030000   724.330000   589.440
124.813550   0.715964   986.550000   251.520000   588.370
109.576113   13.721491   737.200000   606.010000   583.100
122.234181   -27.241249   1554.120000   236.660000   573.050
91.138740   -1.367862   1025.700000   978.600000   572.680
109.098820   -18.419867   1358.450000   607.200000   566.020
55.277288   9.014111   829.260000   1755.220000   560.680
121.752070   -37.554922   1827.510000   159.800000   555.080
111.241737   29.162645   399.400000   520.900000   553.290
106.748627   31.215305   347.780000   621.270000   550.830
101.128986   35.577433   230.090000   739.680000   530.880
122.593234   24.928936   499.740000   241.160000   527.080
94.302117   -1.366798   1025.680000   919.010000   520.590
128.866253   -8.856183   1167.700000   122.120000   518.050
109.106213   39.993498   97.090000   513.350000   515.560
88.964043   23.296158   536.560000   1021.190000   513.170
67.037049   33.196375   295.790000   1544.980000   509.790
89.023980   -25.646143   1516.740000   1020.340000   506.780
73.130219   -42.076355   1971.700000   1439.720000   497.580
109.385601   -40.515013   1919.730000   501.840000   486.330
109.380963   8.321664   842.570000   617.350000   483.190
53.615214   -1.968894   1037.000000   1793.540000   476.010
96.261445   30.651692   362.170000   862.730000   466.600
109.651692   38.649244   139.290000   507.870000   464.910
94.138885   -28.896476   1594.060000   911.040000   463.370
49.388639   12.155083   768.180000   1944.030000   461.660
123.828736   -7.576027   1143.150000   272.350000   448.870
114.858405   -10.043377   1190.620000   493.590000   434.350
96.215224   -32.784413   1693.210000   860.580000   432.610
126.977155   -23.244045   1462.280000   118.040000   432.390
109.746848   7.161349   864.770000   610.600000   428.490
56.441685   -11.055368   1210.290000   1727.460000   423.130
116.874124   41.063361   62.300000   276.610000   408.940
77.208332   41.384090   51.650000   1325.690000   408.100
55.951452   8.968928   830.130000   1736.300000   407.740
61.782944   -42.407206   1983.040000   1782.150000   403.360
100.142981   8.160550   845.660000   805.480000   397.200
80.987210   15.076353   710.070000   1176.800000   387.090
113.700302   24.359867   512.680000   481.360000   377.730
91.048209   27.444545   441.040000   977.810000   366.210
89.150290   41.275425   55.270000   1021.240000   360.800
97.736425   37.852164   163.570000   814.820000   356.650
109.265665   -11.023060   1209.660000   616.740000   349.310
99.042050   -19.773615   1386.930000   817.990000   348.380
113.445061   -26.697891   1541.270000   477.540000   342.510
108.684778   25.247677   492.440000   597.570000   338.610
96.507219   -4.867711   1091.660000   876.790000   333.200
99.263694   -1.371054   1025.760000   824.400000   321.120
109.011627   -21.880405   1432.240000   600.370000   318.190
122.852004   10.829578   794.110000   292.390000   307.310
109.169187   19.404592   620.880000   603.310000   298.870
75.361468   -31.947776   1671.180000   1331.310000   297.770
118.793929   -1.376374   1025.860000   408.280000   297.660
62.767316   31.904827   329.940000   1652.490000   294.410
95.677482   -15.993978   1308.500000   888.690000   283.690
54.905522   -30.858088   1643.080000   1880.990000   280.780
122.624489   -13.471538   1257.830000   291.540000   279.410
119.190011   32.081349   325.330000   290.360000   278.020
100.547153   21.599307   573.880000   784.470000   277.670
57.406554   -19.060047   1371.860000   1728.060000   276.080
115.453226   0.163429   996.930000   487.710000   274.920
61.358594   40.700333   74.230000   1775.360000   267.980
100.087081   -10.847037   1206.230000   805.050000   267.550
112.591918   -1.380631   1025.940000   552.030000   266.150
97.710709   -39.746711   1895.040000   810.470000   264.370
57.515460   -13.665210   1261.680000   1705.230000   255.120
130.037971   14.566910   720.310000   65.630000   254.400
118.830475   -34.175637   1730.780000   283.900000   250.450
126.197911   26.593699   461.180000   119.140000   244.590
74.713803   -31.856846   1668.810000   1346.330000   243.250
129.765565   11.102023   788.800000   87.280000   240.430
73.724443   -17.826525   1346.110000   1330.080000   237.070
124.084282   -26.444097   1535.310000   186.620000   235.640
121.425601   39.614596   109.150000   146.320000   235.600
119.429677   22.081819   563.360000   344.740000   235.320
89.376438   36.488100   203.930000   1014.570000   235.150
54.435625   10.847551   793.760000   1783.540000   233.720
129.525886   -13.730534   1262.980000   85.830000   230.370
128.046911   -31.050318   1647.990000   16.810000   227.810
115.015000   -27.390434   1557.670000   434.360000   221.370
108.389864   15.433600   702.860000   628.790000   221.070
90.202790   9.287041   824.000000   996.140000   220.870
87.358751   -37.697842   1831.790000   1062.750000   219.860
81.279985   -37.703507   1831.960000   1208.650000   219.510
118.526166   33.697087   282.280000   296.840000   218.090
118.273223   -16.839392   1325.760000   395.190000   211.110
80.791935   1.538102   971.100000   1174.540000   205.560
61.059010   7.737601   853.760000   1600.620000   204.220
50.334153   23.039240   542.270000   1969.830000   203.220
118.772749   -41.306981   1945.780000   213.200000   196.640
128.137015   3.990897   924.910000   152.900000   192.540
80.132708   31.608084   337.650000   1219.820000   191.410
129.777432   -17.133970   1331.810000   62.370000   190.580
66.607036   16.155691   688.210000   1484.740000   186.750
115.365180   31.784204   333.080000   399.720000   173.070
73.803409   41.456232   49.240000   1417.130000   168.450
115.047867   -33.890106   1722.970000   394.080000   165.420
125.763838   14.497075   721.710000   199.290000   162.230
61.253474   -10.320827   1196.000000   1600.100000   161.800
117.448181   19.780215   612.930000   405.900000   160.710
82.333692   -20.379408   1399.830000   1154.550000   157.540
82.601965   -25.342976   1509.750000   1154.630000   152.370
90.678191   35.452225   233.640000   984.360000   149.960
78.339652   24.442866   510.800000   1243.980000   148.980
54.770228   -0.013309   1000.250000   1760.080000   148.500
48.158193   -12.394483   1236.530000   1986.730000   138.850
59.187268   -10.767939   1204.690000   1653.430000   137.890
97.719703   3.433755   935.420000   853.840000   137.850
53.215618   2.483421   953.320000   1805.470000   136.120
107.741714   -33.244808   1705.510000   588.260000   136.020
88.953290   -1.355093   1025.460000   1019.670000   134.070
69.718620   -34.576704   1741.840000   1483.060000   132.990
122.251221   -34.459248   1738.590000   176.350000   132.540
64.878504   39.243317   120.840000   1651.630000   126.190
90.725510   -37.415481   1823.350000   982.840000   125.460
57.098809   18.030849   649.650000   1732.280000   118.270
63.224414   14.828399   715.060000   1561.810000   112.820
122.629997   32.379232   317.510000   184.020000   110.440
107.441233   34.989305   246.670000   587.260000   110.000
94.601669   25.502774   486.570000   904.020000   106.730
79.914186   32.856972   304.860000   1227.900000   106.620
65.024648   -0.717561   1013.480000   1501.360000   99.380
54.419694   19.731177   613.970000   1818.020000   96.760
94.635454   -27.807264   1567.640000   901.340000   95.420
117.177520   -22.239802   1440.100000   402.980000   95.400
97.666527   40.251849   88.790000   810.170000   94.690
92.393512   25.150921   494.660000   950.300000   92.990
57.481162   -20.425705   1400.820000   1732.210000   91.670
73.938270   -20.794611   1408.730000   1331.470000   84.420
73.702106   18.362345   642.750000   1331.570000   83.450
79.254540   22.492925   554.340000   1221.070000   82.120
131.745837   -4.685855   1088.220000   36.290000   82.070
126.465057   17.606256   658.450000   165.510000   80.440
79.428678   -36.887586   1807.740000   1251.140000   77.200
74.609633   15.257358   706.420000   1307.090000   76.910
66.747297   21.133474   583.970000   1495.820000   75.350
52.892481   16.159620   688.130000   1847.710000   74.740
95.958804   8.738167   834.570000   886.340000   73.140
67.307747   9.736494   815.320000   1456.630000   72.910
79.170034   34.923509   248.510000   1251.120000   69.580
117.101507   -11.180942   1212.740000   438.540000   65.070
86.463724   15.489974   701.720000   1069.020000   64.920
73.208416   5.404233   898.180000   1326.230000   62.380
87.910755   1.032634   980.600000   1039.270000   61.240
74.795913   -17.775853   1345.060000   1307.170000   58.560
82.914652   -5.679524   1107.040000   1134.440000   57.140
97.973790   28.738326   409.810000   828.060000   56.990
68.622789   2.262346   957.480000   1421.630000   56.780
115.763694   29.115129   400.570000   405.410000   56.170
102.972004   -25.018613   1502.310000   726.400000   55.880
75.519245   -8.320622   1157.410000   1280.920000   54.620
78.323028   -2.312307   1043.460000   1222.620000   54.460
67.334062   -35.906387   1779.290000   1554.920000   53.090
63.244988   -30.442036   1632.520000   1629.380000   52.670
48.289202   -8.613312   1163.030000   1970.250000   51.130
123.954805   -22.616420   1448.380000   214.890000   50.610
56.124103   -13.030214   1249.080000   1741.680000   50.510
64.075383   16.973406   671.490000   1547.020000   50.270
66.843418   6.104070   884.900000   1462.960000   49.250
53.984113   37.612423   170.770000   1987.720000   49.060
113.987811   39.005918   128.250000   383.690000   48.590
56.801570   -23.650431   1471.350000   1768.840000   48.150
97.949176   -33.572728   1714.350000   819.620000   48.140
90.805562   1.693954   968.170000   984.860000   47.980
100.423256   -37.952922   1839.470000   748.910000   46.820
128.011911   15.874861   693.920000   125.390000   46.570
90.551167   -18.213088   1354.140000   989.100000   46.200
80.806561   13.318896   745.200000   1179.010000   45.410
112.071276   -28.785372   1591.340000   502.060000   43.650
67.398526   -36.619666   1799.900000   1558.240000   42.990
79.140615   -15.135400   1291.120000   1213.890000   42.990
69.089119   -13.858062   1265.520000   1423.560000   41.080
105.847533   -7.224228   1136.430000   692.030000   39.750
95.771157   15.233573   706.900000   887.260000   39.670
124.230867   20.170024   604.640000   219.860000   39.030
101.132561   -0.360392   1006.770000   788.200000   27.030
108.684653   -0.322596   1006.060000   636.010000   26.410
112.921425   -0.400848   1007.530000   544.870000   23.530
71.933875   -22.860484   1453.770000   1381.010000   15.930
114.126850   -0.257652   1004.840000   517.940000   12.960
98.377868   -0.248070   1004.660000   841.490000   12.580
# File created at Thu Mar 30 15:50:32 2023 with IOLaueTools.py
# From: AH12_CMT_r14_0200_LT_1.dat
# Calibration parameters
# dd     :   79.0
# xcen     :   1000.0
# ycen     :   1000.0
# xbet     :   0.0
# xgam     :   0.0
# pixelsize     :   0.0734
# ypixelsize     :   0.0734