2theta chi X Y I
58.429265   20.128606   623.120000   1657.730000   29239.300
80.925987   0.659786   933.040000   1215.440000   21725.720
57.639216   -18.419395   1244.330000   1662.150000   21119.580
116.816238   21.291113   585.220000   588.800000   9264.990
115.965074   -20.739022   1276.610000   600.300000   8980.300
109.768869   0.326198   932.670000   750.080000   6748.130
96.653431   -36.241234   1596.620000   935.360000   6070.920
64.219265   -13.982668   1168.360000   1512.820000   5546.180
98.078898   37.492157   252.360000   920.600000   5535.090
96.206846   -48.313782   1945.880000   914.240000   5092.310
127.946424   -0.049559   934.030000   369.310000   4933.940
64.836560   15.584748   698.690000   1509.530000   4886.490
73.312842   -27.436214   1407.750000   1368.170000   4836.620
74.434056   28.995571   451.120000   1362.440000   4496.050
119.871927   0.133660   933.370000   555.810000   4238.670
68.812044   -34.751543   1563.830000   1485.130000   4002.470
90.982944   -14.690588   1175.930000   1054.070000   3992.920
70.196720   36.417905   289.850000   1478.770000   3616.030
89.458934   -11.680937   1126.590000   1079.150000   3370.030
91.616206   15.838317   687.530000   1049.510000   3235.520
76.656887   23.967129   547.970000   1308.920000   2603.550
89.957415   12.863941   737.410000   1075.840000   2549.490
56.374341   0.834566   935.720000   1663.390000   2364.650
110.135801   -15.460851   1185.940000   728.120000   1908.090
113.102404   30.339774   410.070000   634.530000   1845.350
110.797465   16.129486   677.650000   720.680000   1682.040
111.920358   -29.550039   1446.250000   650.850000   1617.900
75.718786   -22.479888   1313.480000   1313.960000   1608.220
81.555687   33.880010   344.230000   1239.470000   1391.970
77.966294   -38.516763   1654.150000   1307.210000   1328.980
80.259050   -32.391433   1509.850000   1247.400000   1291.240
97.005648   0.507562   932.380000   962.770000   1214.140
95.249562   24.384541   534.730000   987.240000   1211.990
123.814999   -16.268255   1197.120000   440.750000   1198.630
99.815933   0.458337   932.610000   917.780000   1163.110
118.309155   -12.786592   1139.900000   573.300000   1085.860
123.892948   -30.692333   1468.650000   361.630000   1075.170
93.015274   -19.518219   1258.220000   1018.940000   960.750
118.852144   13.168583   725.020000   566.040000   949.260
79.496162   40.104279   193.040000   1297.880000   915.010
94.265336   -23.222445   1324.800000   995.510000   913.550
70.357162   -9.273691   1090.900000   1393.150000   889.130
125.112799   31.082796   388.800000   338.250000   888.690
93.839064   20.686877   602.910000   1012.550000   882.020
88.735417   10.837302   770.710000   1094.860000   850.420
95.610644   -28.462532   1425.820000   966.890000   845.700
70.799250   10.780370   775.770000   1390.560000   839.080
96.790695   -39.659648   1682.610000   925.320000   750.640
98.333385   40.966667   161.430000   908.130000   709.200
124.493651   16.448404   667.820000   430.080000   678.940
60.876496   0.820456   934.790000   1568.150000   664.700
114.080087   0.256406   932.820000   671.120000   636.530
88.319047   -9.659519   1094.100000   1097.530000   632.350
96.773191   29.641375   430.530000   956.400000   621.590
117.018392   38.623604   214.970000   493.350000   520.970
102.602438   -10.058367   1098.220000   867.260000   520.780
103.046882   10.926907   766.010000   863.170000   519.850
110.396057   35.145907   304.020000   671.550000   493.670
108.605177   -24.022474   1337.880000   737.010000   482.300
109.056166   -34.182748   1547.310000   690.310000   464.700
124.912696   0.018781   933.840000   443.720000   454.970
133.812117   -17.128335   1209.490000   161.580000   452.500
110.970193   -40.857418   1714.010000   607.740000   452.230
109.587121   24.820068   522.050000   725.540000   448.370
134.511601   16.773767   657.940000   147.210000   411.280
119.650914   -24.839887   1351.740000   502.870000   387.210
115.545081   -37.805508   1633.590000   519.800000   374.320
53.093153   23.567398   563.660000   1803.550000   357.430
120.658724   25.298607   508.830000   487.160000   319.850
52.163512   -21.783350   1304.570000   1809.730000   283.300
50.496346   -25.396648   1371.590000   1875.810000   270.980
82.593623   -40.663819   1710.210000   1216.570000   261.800
84.161520   42.216048   132.990000   1205.660000   236.430
113.959534   -10.477275   1102.990000   664.570000   218.600
82.642808   29.209613   444.020000   1210.750000   215.070
114.400009   11.008107   761.830000   659.410000   206.330
135.352063   -14.007720   1156.070000   126.080000   204.650
112.553729   41.860376   129.440000   580.540000   192.750
137.289554   -5.405916   1015.550000   86.780000   190.330
96.766124   -41.584685   1734.860000   921.160000   166.140
81.498441   -27.773946   1413.520000   1217.940000   156.960
133.305184   -0.226110   935.050000   220.930000   149.900
135.924565   13.510122   712.780000   114.140000   142.220
100.087754   -8.518236   1073.910000   909.930000   135.990
98.363468   42.915653   106.180000   902.720000   123.190
94.919392   0.506669   932.790000   995.770000   115.040
128.271953   -25.706821   1366.910000   276.850000   101.760
129.312135   25.802500   495.120000   256.300000   95.720
100.448476   9.443459   790.580000   906.970000   92.200
108.136228   -42.549200   1761.760000   663.320000   79.200
123.019629   -10.917368   1108.280000   474.390000   60.370
108.210089   30.107684   416.830000   737.400000   56.980
85.465618   36.951390   270.720000   1169.380000   54.640
123.465056   11.089634   757.810000   467.930000   54.120
107.023561   -29.200983   1439.620000   751.850000   53.460
126.954309   -36.120056   1590.950000   223.360000   46.000
92.616776   17.954921   651.170000   1033.190000   42.390
# File created at Thu Mar 30 15:25:29 2023 with IOLaueTools.py
# From: Ge_blanc_0000_LT_5.dat
# Calibration parameters
# dd     :   70.775
# xcen     :   941.74
# ycen     :   1082.56
# xbet     :   0.63
# xgam     :   -0.682
# pixelsize     :   0.079142
# ypixelsize     :   0.079142