2theta chi X Y I
64.314471   8.148035   870.900000   1551.460000   20197.240
61.394837   24.936862   536.410000   1670.290000   18766.410
79.359326   -0.052272   1021.470000   1242.390000   17584.780
73.267423   -12.217722   1245.630000   1367.410000   16332.310
60.800855   9.796093   840.140000   1635.560000   15095.920
71.573322   -14.798321   1295.070000   1405.960000   14148.220
74.939523   -32.162989   1674.770000   1379.110000   10888.380
123.687105   -26.347241   1542.200000   267.890000   10790.200
57.862896   -30.536210   1631.480000   1805.230000   9562.150
83.146412   25.587913   521.560000   1184.320000   9425.540
61.135566   -3.087558   1075.660000   1620.490000   9181.680
103.816824   -22.046945   1444.920000   770.350000   8913.930
66.427447   -21.553191   1430.540000   1535.470000   8560.350
82.305958   10.346911   830.360000   1189.310000   8531.830
98.490224   4.196582   944.750000   890.140000   8396.170
65.457566   20.726988   626.320000   1553.310000   7904.960
84.457860   -29.420226   1608.570000   1164.190000   7573.550
54.636325   31.083668   393.560000   1904.760000   6975.440
82.622040   12.200711   795.300000   1184.170000   6468.030
90.450407   -7.977516   1167.220000   1038.710000   5764.030
68.706783   -18.725730   1372.590000   1475.610000   5676.510
74.374322   -10.391558   1211.210000   1343.170000   5611.250
84.667044   -23.852572   1481.670000   1154.160000   5154.770
72.127150   -37.964457   1831.690000   1474.120000   5089.790
96.302747   26.096470   509.890000   916.980000   4961.290
92.269977   -9.512316   1195.950000   1005.120000   4960.330
66.713919   6.972243   892.700000   1497.320000   4857.600
82.477192   30.957176   395.500000   1205.600000   4685.690
92.226256   -26.821056   1548.710000   1002.460000   4660.360
109.313179   7.460020   884.960000   676.680000   4599.970
67.582421   28.823697   447.580000   1534.890000   4407.320
65.161503   39.579312   160.630000   1668.510000   3958.700
80.595318   38.757622   184.180000   1265.870000   3941.760
84.201755   -17.160900   1342.640000   1158.210000   3911.720
58.524116   39.890569   151.760000   1872.420000   3821.160
114.920344   -15.886870   1320.120000   541.730000   3593.530
76.627692   -27.775119   1568.750000   1327.750000   3542.940
112.005269   -37.644648   1829.800000   514.270000   3521.060
83.310864   21.713252   605.610000   1177.210000   3436.740
63.833050   -2.680002   1068.420000   1558.180000   3314.330
95.983702   14.118459   758.680000   933.160000   3307.400
115.295827   27.131847   485.820000   489.300000   3261.360
69.979810   25.168436   531.130000   1464.290000   3193.370
101.178081   20.599227   628.860000   825.130000   3126.830
55.451241   -32.736620   1685.860000   1897.430000   3023.830
101.629085   -4.415051   1102.180000   831.190000   2945.670
94.167725   12.176289   795.970000   968.280000   2861.410
97.750310   30.876031   396.960000   879.510000   2836.300
104.674984   -5.176920   1116.350000   772.050000   2825.660
93.009900   -31.481456   1660.240000   983.840000   2730.040
114.145566   9.236175   851.980000   570.940000   2695.510
49.215135   -10.616174   1213.150000   1957.320000   2684.010
120.703991   12.097893   798.000000   409.840000   2569.660
116.102977   10.030464   837.110000   525.330000   2560.300
49.854782   -10.684237   1214.500000   1937.290000   2558.860
104.901889   26.507893   500.380000   734.500000   2527.550
73.681050   24.416910   547.630000   1380.190000   2479.190
73.848829   -24.961914   1504.740000   1380.340000   2456.930
66.465282   -38.001414   1831.610000   1623.040000   2382.780
95.544694   3.437306   958.540000   944.960000   2330.960
106.259751   -25.694666   1524.880000   709.450000   2162.320
83.884559   -15.026152   1300.540000   1162.960000   2136.250
82.782212   28.954525   444.020000   1196.080000   2094.020
100.773148   -18.128867   1363.530000   838.310000   2088.830
129.395755   -2.999206   1078.060000   183.930000   2041.410
121.769628   -10.783725   1222.160000   386.580000   2032.390
111.087428   21.889304   601.710000   610.830000   1912.390
121.291490   27.574866   475.370000   326.580000   1886.680
69.949650   15.403749   733.360000   1439.850000   1837.710
120.001925   -19.771672   1399.140000   404.750000   1677.650
107.076247   30.806221   398.340000   671.090000   1633.080
56.231060   -0.275439   1024.300000   1741.040000   1539.320
104.055207   42.673529   57.850000   688.230000   1491.540
52.950547   -34.002306   1718.050000   1992.420000   1470.650
84.008265   -33.188034   1702.440000   1179.020000   1436.740
114.069423   -7.926364   1167.840000   575.040000   1421.340
105.632007   6.248293   907.270000   752.140000   1398.570
94.024302   -12.016329   1243.340000   972.100000   1387.010
77.950618   -11.811258   1238.270000   1274.330000   1368.800
89.081315   -6.872767   1146.680000   1063.790000   1349.000
77.867399   11.282996   812.620000   1274.480000   1314.200
85.891204   -32.254884   1678.740000   1136.800000   1309.730
61.194298   -0.278049   1024.650000   1618.160000   1293.170
77.274598   -14.987462   1299.240000   1290.810000   1288.180
77.179691   14.447967   752.050000   1290.750000   1184.110
83.268140   18.822843   665.380000   1175.760000   1181.590
94.931851   22.532858   588.140000   948.060000   1174.470
122.288229   -2.309954   1064.870000   384.120000   1164.880
126.924789   -13.154006   1268.060000   237.830000   1164.370
133.339698   2.519633   977.200000   54.680000   1161.160
82.028300   8.986471   855.820000   1194.000000   1124.240
85.691591   31.739757   375.860000   1137.430000   1114.900
101.947043   -21.089925   1424.530000   810.660000   1104.750
56.358755   22.619077   586.660000   1793.940000   1082.980
104.754983   15.671762   728.460000   760.020000   1064.830
125.168329   27.903243   467.560000   208.950000   1041.000
98.383809   -37.793317   1831.510000   853.790000   1027.310
88.802317   -42.687369   1982.960000   1078.640000   1024.810
127.508252   -37.405471   1826.540000   33.820000   1017.020
51.081140   14.099351   758.360000   1909.590000   1011.450
94.162464   37.866319   209.580000   948.430000   1006.850
96.362247   -13.331946   1268.700000   927.600000   1000.610
91.356894   -23.290316   1470.210000   1020.820000   973.340
112.644841   -1.605503   1051.380000   610.070000   952.820
120.624081   -31.516431   1665.520000   320.310000   949.140
110.871597   -13.264156   1268.570000   637.450000   942.180
70.415413   -31.774304   1664.260000   1483.550000   927.080
125.845110   34.381351   305.110000   126.180000   911.400
70.182927   31.228938   389.240000   1483.480000   907.410
114.942219   -20.596234   1415.640000   527.500000   901.030
105.661279   -0.227639   1025.860000   753.600000   886.620
78.287460   -9.753670   1199.530000   1266.210000   847.640
70.648384   5.982622   911.040000   1413.880000   809.660
124.903264   14.292170   755.750000   291.150000   799.300
78.245882   9.234925   851.090000   1265.830000   785.240
64.935637   -10.279617   1208.380000   1541.340000   776.750
117.276457   22.887459   580.320000   459.430000   770.970
51.884643   23.947520   558.220000   1935.820000   765.920
122.802562   -29.608196   1618.740000   270.760000   759.070
57.286629   -3.638699   1085.420000   1715.290000   749.870
123.388999   -15.998375   1323.260000   328.680000   736.310
92.397064   31.997509   369.090000   993.540000   721.620
101.244291   -37.761568   1831.110000   785.800000   705.450
51.845658   -24.513744   1491.740000   1943.280000   701.520
118.139277   -0.190102   1025.830000   486.630000   698.940
90.037887   -20.767895   1416.610000   1046.860000   695.120
91.713496   2.515565   975.230000   1015.280000   692.590
92.611119   -32.501185   1686.010000   991.820000   670.220
53.556403   -0.919432   1035.790000   1813.260000   667.900
65.838426   37.957838   208.910000   1635.930000   666.270
129.683449   -0.146322   1025.790000   176.080000   660.470
106.753152   11.771995   803.910000   724.640000   655.110
109.760563   -32.167854   1680.120000   604.200000   653.930
102.736147   5.377441   923.220000   809.190000   649.370
101.927653   -42.972660   1995.540000   747.220000   643.190
63.074224   -25.318572   1511.220000   1631.740000   634.930
102.384811   13.701855   766.830000   809.860000   631.880
107.598667   -27.969464   1577.250000   672.390000   627.510
89.926873   20.261759   635.890000   1047.120000   627.280
109.005499   -33.253004   1708.020000   617.400000   625.600
109.250984   -1.389612   1047.250000   681.380000   620.640
112.161779   -15.649321   1315.160000   604.780000   612.790
69.390593   -33.588757   1710.530000   1517.820000   593.930
106.795479   -12.211547   1248.030000   724.330000   589.440
127.149662   1.986724   986.550000   251.520000   588.370
112.083090   15.231061   737.200000   606.010000   583.100
124.608182   -26.859889   1554.120000   236.660000   573.050
93.730255   -0.249207   1025.700000   978.600000   572.680
111.830648   -17.823623   1358.450000   607.200000   566.020
56.111221   10.370068   829.260000   1755.220000   560.680
123.909909   -37.472151   1827.510000   159.800000   555.080
113.284603   30.753320   399.400000   520.900000   553.290
108.801199   32.802543   347.780000   621.270000   550.830
103.095388   37.137883   230.090000   739.680000   530.880
124.456562   26.514489   499.740000   241.160000   527.080
96.969446   -0.240066   1025.680000   919.010000   520.590
131.119196   -7.836742   1167.700000   122.120000   518.050
110.811328   41.469728   97.090000   513.350000   515.560
91.208540   24.907812   536.560000   1021.190000   513.170
68.460744   34.849079   295.790000   1544.980000   509.790
91.363758   -25.410480   1516.740000   1020.340000   506.780
74.510977   -42.445514   1971.700000   1439.720000   497.580
111.636025   -40.601475   1919.730000   501.840000   486.330
111.999598   9.734291   842.570000   617.350000   483.190
54.271293   -0.983433   1037.000000   1793.540000   476.010
98.396020   32.260195   362.170000   862.730000   466.600
111.395769   40.146117   139.290000   507.870000   464.910
96.561606   -28.745338   1594.060000   911.040000   463.370
49.913836   13.586605   768.180000   1944.030000   461.660
126.274939   -6.543581   1143.150000   272.350000   448.870
117.559819   -9.130728   1190.620000   493.590000   434.350
98.594093   -32.746609   1693.210000   860.580000   432.610
129.252785   -22.698696   1462.280000   118.040000   432.390
112.380762   8.549689   864.770000   610.600000   428.490
57.206628   -10.418098   1210.290000   1727.460000   423.130
118.363192   42.494204   62.300000   276.610000   408.940
78.807643   42.930718   51.650000   1325.690000   408.100
56.824329   10.324803   830.130000   1736.300000   407.740
62.636593   -42.872919   1983.040000   1782.150000   403.360
102.799719   9.557043   845.660000   805.480000   397.200
83.136362   16.593897   710.070000   1176.800000   387.090
115.842333   25.955287   512.680000   481.360000   377.730
93.231399   29.067128   441.040000   977.810000   366.210
90.928789   42.788402   55.270000   1021.240000   360.800
99.643829   39.392893   163.570000   814.820000   356.650
112.042625   -10.167320   1209.660000   616.740000   349.310
101.715603   -19.275436   1386.930000   817.990000   348.380
116.014250   -26.360060   1541.270000   477.540000   342.510
110.898145   26.849108   492.440000   597.570000   338.610
99.225503   -3.848283   1091.660000   876.790000   333.200
102.009108   -0.231696   1025.760000   824.400000   321.120
111.701603   -21.405903   1432.240000   600.370000   318.190
125.083036   12.306872   794.110000   292.390000   307.310
111.542136   20.979603   620.880000   603.310000   298.870
77.018224   -32.008457   1671.180000   1331.310000   297.770
121.355846   -0.181232   1025.860000   408.280000   297.660
64.026453   33.570845   329.940000   1652.490000   294.410
98.333148   -15.372994   1308.500000   888.690000   283.690
55.477799   -31.029016   1643.080000   1880.990000   280.780
125.119255   -12.634026   1257.830000   291.540000   279.410
120.931409   33.635984   325.330000   290.360000   278.020
102.933039   23.193501   573.880000   784.470000   277.670
58.179578   -18.749010   1371.860000   1728.060000   276.080
118.083612   1.390914   996.930000   487.710000   274.920
62.493828   42.309064   74.230000   1775.360000   267.980
102.849365   -10.021650   1206.230000   805.050000   267.550
115.294258   -0.204905   1025.940000   552.030000   266.150
99.924553   -39.894722   1895.040000   810.470000   264.370
58.329009   -13.129860   1261.680000   1705.230000   255.120
131.892139   16.100895   720.310000   65.630000   254.400
121.142945   -34.027520   1730.780000   283.900000   250.450
127.877758   28.169984   461.180000   119.140000   244.590
76.340175   -31.918584   1668.810000   1346.330000   243.250
131.711206   12.593174   788.800000   87.280000   240.430
75.476414   -17.374235   1346.110000   1330.080000   237.070
126.415701   -26.023406   1535.310000   186.620000   235.640
122.835758   41.056530   109.150000   146.320000   235.600
121.483894   23.667383   563.360000   344.740000   235.320
91.300203   38.065707   203.930000   1014.570000   235.150
55.233451   12.251983   793.760000   1783.540000   233.720
131.758039   -12.859036   1262.980000   85.830000   230.370
130.164835   -30.735173   1647.990000   16.810000   227.810
117.548105   -27.064882   1557.670000   434.360000   221.370
110.873772   16.966496   702.860000   628.790000   221.070
92.696402   10.696527   824.000000   996.140000   220.870
89.386690   -37.858410   1831.790000   1062.750000   219.860
83.090870   -37.903025   1831.960000   1208.650000   219.510
120.231810   35.236702   282.280000   296.840000   218.090
120.877293   -16.139386   1325.760000   395.190000   211.110
83.005760   2.723515   971.100000   1174.540000   205.560
62.224761   9.067824   853.760000   1600.620000   204.220
50.991661   24.680422   542.270000   1969.830000   203.220
120.886055   -41.337943   1945.780000   213.200000   196.640
130.289740   5.349347   924.910000   152.900000   192.540
82.011535   33.240212   337.650000   1219.820000   191.410
131.989907   -16.369754   1331.810000   62.370000   190.580
68.100340   17.687374   688.210000   1484.740000   186.750
117.224241   33.350084   333.080000   399.720000   173.070
75.319854   43.012408   49.240000   1417.130000   168.450
117.435590   -33.762569   1722.970000   394.080000   165.420
127.799402   16.027253   721.710000   199.290000   162.230
62.320629   -9.629147   1196.000000   1600.100000   161.800
119.628071   21.355825   612.930000   405.900000   160.710
84.490821   -19.983647   1399.830000   1154.550000   157.540
84.700824   -25.130657   1509.750000   1154.630000   152.370
92.643398   37.037501   233.640000   984.360000   149.960
80.284647   26.069596   510.800000   1243.980000   148.980
55.509887   1.048956   1000.250000   1760.080000   148.500
48.431449   -11.864891   1236.530000   1986.730000   138.850
60.123132   -10.104513   1204.690000   1653.430000   137.890
100.411921   4.709082   935.420000   853.840000   137.850
53.881051   3.628861   953.320000   1805.470000   136.120
110.208111   -33.149036   1705.510000   588.260000   136.020
91.481009   -0.241575   1025.460000   1019.670000   134.070
71.053551   -34.759901   1741.840000   1483.060000   132.990
124.475681   -34.291146   1738.590000   176.350000   132.540
66.156104   40.856732   120.840000   1651.630000   126.190
92.859243   -37.547052   1823.350000   982.840000   125.460
58.085773   19.594229   649.650000   1732.280000   118.270
64.536776   16.333466   715.060000   1561.810000   112.820
124.251245   33.922474   317.510000   184.020000   110.440
109.354823   36.541607   246.670000   587.260000   110.000
96.868523   27.118815   486.570000   904.020000   106.730
81.762614   34.484014   304.860000   1227.900000   106.620
66.385493   0.353112   1013.480000   1501.360000   99.380
55.270471   21.323093   613.970000   1818.020000   96.760
97.091977   -27.616522   1567.640000   901.340000   95.420
119.752993   -21.729879   1440.100000   402.980000   95.400
99.492520   41.757200   88.790000   810.170000   94.690
94.648032   26.768125   494.660000   950.300000   92.990
58.250423   -20.170282   1400.820000   1732.210000   91.670
75.670854   -20.457073   1408.730000   1331.470000   84.420
75.528983   19.930263   642.750000   1331.570000   83.450
81.256873   24.105271   554.340000   1221.070000   82.120
133.842864   -3.529333   1088.220000   36.290000   82.070
128.393430   19.165685   658.450000   165.510000   80.440
81.181331   -37.075907   1807.740000   1251.140000   77.200
76.496337   16.775619   706.420000   1307.090000   76.910
68.237202   22.739239   583.970000   1495.820000   75.350
53.639821   17.686978   688.130000   1847.710000   74.740
98.568025   10.142189   834.570000   886.340000   73.140
68.837472   11.129677   815.320000   1456.630000   72.910
80.957534   36.538837   248.510000   1251.120000   69.580
119.754672   -10.295934   1212.740000   438.540000   65.070
88.783752   17.016318   701.720000   1069.020000   64.920
75.053187   6.689747   898.180000   1326.230000   62.380
90.398857   2.218351   980.600000   1039.270000   61.240
76.607193   -17.316347   1345.060000   1307.170000   58.560
85.214028   -4.729436   1107.040000   1134.440000   57.140
100.166083   30.350556   409.810000   828.060000   56.990
70.209448   3.442689   957.480000   1421.630000   56.780
117.702284   30.698324   400.570000   405.410000   56.170
105.606991   -24.686190   1502.310000   726.400000   55.880
77.446073   -7.492045   1157.410000   1280.920000   54.620
80.419300   -1.258555   1043.460000   1222.620000   54.460
68.529930   -36.147967   1779.290000   1554.920000   53.090
64.277530   -30.532162   1632.520000   1629.380000   52.670
48.590729   -7.921647   1163.030000   1970.250000   51.130
126.342807   -22.073547   1448.380000   214.890000   50.610
56.856973   -12.476524   1249.080000   1741.680000   50.510
65.435644   18.518985   671.490000   1547.020000   50.270
68.339673   7.398054   884.900000   1462.960000   49.250
54.847958   39.279088   170.770000   1987.720000   49.060
115.625276   40.483870   128.250000   383.690000   48.590
57.512599   -23.530424   1471.350000   1768.840000   48.150
100.338694   -33.548487   1714.350000   819.620000   48.140
93.376123   2.905836   968.170000   984.860000   47.980
102.725581   -38.037145   1839.470000   748.910000   46.820
129.921397   17.420349   693.920000   125.390000   46.570
93.048710   -17.697170   1354.140000   989.100000   46.200
82.965080   14.804312   745.200000   1179.010000   45.410
114.615503   -28.523894   1591.340000   502.060000   43.650
68.589063   -36.882428   1799.900000   1558.240000   42.990
81.203976   -14.553157   1291.120000   1213.890000   42.990
70.609592   -13.271015   1265.520000   1423.560000   41.080
108.642590   -6.252995   1136.430000   692.030000   39.750
98.274454   16.759117   706.900000   887.260000   39.670
126.175693   21.745350   604.640000   219.860000   39.030
103.887604   0.814326   1006.770000   788.200000   27.030
111.428266   0.872646   1006.060000   636.010000   26.410
115.608723   0.803793   1007.530000   544.870000   23.530
73.532893   -22.613533   1453.770000   1381.010000   15.930
116.790008   0.954426   1004.840000   517.940000   12.960
101.106737   0.923213   1004.660000   841.490000   12.580
# File created at Thu Mar 30 16:01:21 2023 with IOLaueTools.py
# From: /home/micha/lauetoolsgithub/LaueTools/LaueImages/AH12_CMT_r14_0200_LT_1.dat
# Calibration parameters
# dd     :   76.57034754919498
# xcen     :   1020.9777581838106
# ycen     :   1053.7933197225825
# xbet     :   0.3930739397949959
# xgam     :   0.13922595633134183
# pixelsize     :   0.0734
# ypixelsize     :   0.0734