2theta chi X Y I
64.327623   8.146249   870.910000   1551.470000   20395.610
61.405532   24.934667   536.470000   1670.310000   17926.930
79.377125   -0.055351   1021.480000   1242.390000   17602.870
73.283761   -12.221375   1245.630000   1367.400000   16339.320
60.813324   9.794550   840.150000   1635.560000   14729.760
71.588567   -14.802121   1295.070000   1405.960000   14104.590
74.952562   -32.166911   1674.750000   1379.130000   10358.260
83.163709   25.588668   521.560000   1184.320000   9440.830
61.148269   -3.089923   1075.660000   1620.490000   9176.820
103.835058   -22.053145   1444.930000   770.350000   8994.180
57.874330   -30.538607   1631.450000   1805.190000   8766.220
66.440840   -21.557162   1430.540000   1535.470000   8544.870
82.324279   10.345704   830.360000   1189.310000   8534.850
98.510816   4.194254   944.750000   890.140000   8384.040
65.470075   20.726645   626.330000   1553.330000   8101.490
127.074924   15.019645   741.550000   225.910000   7839.280
84.473370   -29.425401   1608.570000   1164.200000   7680.810
54.647852   31.085365   393.540000   1904.710000   7359.960
82.640360   12.200278   795.290000   1184.170000   6464.780
90.469840   -7.981318   1167.220000   1038.710000   5756.440
68.720940   -18.729174   1372.580000   1475.610000   5701.740
74.390551   -10.395088   1211.210000   1343.170000   5608.940
84.683951   -23.857538   1481.670000   1154.160000   5209.230
72.140591   -37.969275   1831.700000   1474.100000   5128.760
92.289494   -9.516356   1195.950000   1005.120000   4969.230
96.321676   26.097386   509.890000   916.980000   4953.790
66.728293   6.970823   892.700000   1497.320000   4857.490
109.333660   7.458033   884.960000   676.680000   4724.350
92.243964   -26.826083   1548.700000   1002.450000   4710.980
82.493668   30.958499   395.500000   1205.600000   4650.960
67.596709   28.825050   447.570000   1534.870000   4529.990
65.171454   39.581240   160.620000   1668.560000   4035.860
80.610185   38.759221   184.190000   1265.870000   3936.870
84.219455   -17.165401   1342.640000   1158.210000   3934.860
58.535320   39.889369   151.840000   1872.350000   3697.490
114.938679   -15.892522   1320.120000   541.730000   3579.610
76.642697   -27.779846   1568.750000   1327.750000   3547.980
112.019526   -37.651477   1829.800000   514.270000   3529.240
83.328610   21.713543   605.610000   1177.210000   3443.370
96.003296   14.117677   758.680000   933.170000   3325.770
63.846571   -2.681865   1068.410000   1558.180000   3323.790
115.314158   27.133079   485.820000   489.300000   3264.780
69.994596   25.169050   531.130000   1464.280000   3159.600
101.197914   20.599401   628.860000   825.130000   3117.200
55.460284   -32.739277   1685.840000   1897.440000   3018.790
101.648979   -4.418176   1102.170000   831.200000   2911.890
97.768593   30.877550   396.960000   879.510000   2836.940
104.695321   -5.180785   1116.350000   772.050000   2824.260
94.187797   12.175229   795.970000   968.280000   2816.630
93.025775   -31.487518   1660.250000   983.850000   2700.200
114.165125   9.234418   851.980000   570.950000   2661.700
73.690448   24.417932   547.620000   1380.320000   2619.360
120.722948   12.096564   798.000000   409.840000   2561.570
116.122719   10.028820   837.110000   525.330000   2559.140
49.234561   -10.626550   1213.300000   1957.010000   2556.820
49.863612   -10.686709   1214.500000   1937.300000   2541.980
73.857477   -24.965083   1504.710000   1380.470000   2540.740
104.921448   26.508934   500.380000   734.490000   2534.230
66.481019   -38.007555   1831.670000   1622.940000   2460.630
95.565633   3.434920   958.540000   944.950000   2321.180
106.277179   -25.701213   1524.890000   709.450000   2162.970
83.902955   -15.030459   1300.540000   1162.950000   2103.850
82.799019   28.955648   444.020000   1196.080000   2087.220
121.787888   -10.789028   1222.160000   386.570000   2038.040
129.412290   -3.004123   1078.070000   183.940000   2024.140
100.792609   -18.134125   1363.530000   838.300000   2015.570
111.107287   21.889698   601.710000   610.820000   1933.070
121.308921   27.576238   475.370000   326.580000   1905.730
69.964669   15.403288   733.360000   1439.850000   1857.210
120.018852   -19.778017   1399.140000   404.750000   1674.100
107.094610   30.807860   398.340000   671.090000   1632.680
52.959137   -34.002850   1717.980000   1992.400000   1511.930
104.071201   42.676316   57.850000   688.230000   1506.090
84.024336   -33.192082   1702.410000   1179.000000   1464.660
114.089305   -7.930396   1167.830000   575.030000   1457.180
56.245313   -0.275706   1024.270000   1740.960000   1429.750
105.652674   6.246165   907.270000   752.140000   1391.650
94.043748   -12.020710   1243.340000   972.100000   1379.830
77.966567   -11.815055   1238.270000   1274.350000   1379.180
89.100101   -6.876397   1146.680000   1063.800000   1357.350
55.689287   22.662548   585.750000   1813.490000   1328.440
56.368809   22.617955   586.690000   1793.950000   1252.710
85.923640   -32.263234   1678.820000   1136.440000   1243.750
77.291184   -14.991509   1299.240000   1290.810000   1202.940
61.225749   -0.281732   1024.680000   1617.720000   1190.050
94.951109   22.533760   588.130000   948.060000   1187.720
83.286617   18.821781   665.400000   1175.750000   1181.020
133.355801   2.516162   977.200000   54.680000   1167.040
126.941277   -13.159919   1268.060000   237.830000   1163.730
122.306742   -2.313929   1064.870000   384.120000   1161.840
82.046621   8.985619   855.810000   1194.000000   1125.180
85.714099   31.741989   375.840000   1137.310000   1112.050
77.199788   14.448896   752.020000   1290.690000   1097.890
77.905866   11.281982   812.620000   1274.070000   1094.310
98.398146   -37.797953   1831.470000   853.810000   1052.890
104.774750   15.671679   728.450000   760.030000   1043.400
125.185022   27.904721   467.560000   208.950000   1042.330
51.088682   14.096814   758.400000   1909.640000   1033.830
127.519969   -37.413811   1826.550000   33.820000   1022.270
94.179227   37.868480   209.580000   948.430000   1007.170
105.662063   -0.225915   1025.770000   753.990000   1006.260
88.815473   -42.692111   1982.940000   1078.650000   1000.550
96.381709   -13.336554   1268.700000   927.600000   999.790
101.980907   -21.092552   1424.470000   810.350000   990.700
91.374642   -23.295557   1470.210000   1020.820000   977.180
112.664870   -1.609059   1051.380000   610.070000   953.390
110.890757   -13.269316   1268.570000   637.450000   935.390
120.638474   -31.524097   1665.530000   320.310000   933.230
70.429368   -31.778345   1664.250000   1483.530000   912.610
125.860783   34.383460   305.120000   126.180000   909.450
70.208758   31.225255   389.360000   1483.170000   820.860
70.663921   5.981016   911.040000   1413.880000   815.090
78.259166   9.233611   851.090000   1265.910000   798.120
129.693335   -0.148019   1025.750000   176.300000   728.080
78.321867   -9.758280   1199.550000   1265.880000   706.140
53.570717   -0.921317   1035.790000   1813.150000   624.170
56.107054   10.385181   828.960000   1755.660000   609.110
# File created at Tue Oct  8 13:02:40 2024 with IOLaueTools.py
# From: /home/micha/lauetoolsgithub/LaueTools/LaueImages/AH12_CMT_r14_0200_LT_0.dat
# Output Folder: /home/micha/lauetoolsgithub/LaueTools/LaueImages
# Calibration parameters
# dd     :   76.55972575615158
# xcen     :   1020.9269123967234
# ycen     :   1054.0849436249664
# xbet     :   0.3894040534184268
# xgam     :   0.13792757743401796
# pixelsize     :   0.0734
# ypixelsize     :   0.0734