2theta chi X Y I
64.328295   8.145785   870.910000   1551.470000   20395.610
61.406074   24.934146   536.470000   1670.310000   17926.930
79.377835   -0.055744   1021.480000   1242.390000   17602.870
73.284497   -12.221690   1245.630000   1367.400000   16339.320
60.813977   9.794068   840.150000   1635.560000   14729.760
71.589305   -14.802413   1295.070000   1405.960000   14104.590
74.953242   -32.167048   1674.750000   1379.130000   10358.260
83.164291   25.588251   521.560000   1184.320000   9440.830
61.148985   -3.090319   1075.660000   1620.490000   9176.820
103.835630   -22.053418   1444.930000   770.350000   8994.180
57.875031   -30.538709   1631.450000   1805.190000   8766.220
66.441573   -21.557384   1430.540000   1535.470000   8544.870
82.324949   10.345281   830.360000   1189.310000   8534.850
98.511458   4.193879   944.750000   890.140000   8384.040
65.470664   20.726148   626.330000   1553.330000   8101.490
127.075418   15.019374   741.550000   225.910000   7839.280
84.474028   -29.425587   1608.570000   1164.200000   7680.810
54.648312   31.084802   393.540000   1904.710000   7359.960
82.641021   12.199853   795.290000   1184.170000   6464.780
90.470523   -7.981661   1167.220000   1038.710000   5756.440
68.721677   -18.729427   1372.580000   1475.610000   5701.740
74.391285   -10.395418   1211.210000   1343.170000   5608.940
84.684631   -23.857769   1481.670000   1154.160000   5209.230
72.141244   -37.969348   1831.700000   1474.100000   5128.760
92.290167   -9.516690   1195.950000   1005.120000   4969.230
96.322251   26.097026   509.890000   916.980000   4953.790
66.728976   6.970372   892.700000   1497.320000   4857.490
109.334247   7.457678   884.960000   676.680000   4724.350
92.244592   -26.826306   1548.700000   1002.450000   4710.980
82.494209   30.958094   395.500000   1205.600000   4650.960
67.597236   28.824564   447.570000   1534.870000   4529.990
65.171872   39.580767   160.620000   1668.560000   4035.860
80.610656   38.758838   184.190000   1265.870000   3936.870
84.220155   -17.165684   1342.640000   1158.210000   3934.860
58.535710   39.888850   151.840000   1872.350000   3697.490
114.939195   -15.892836   1320.120000   541.730000   3579.610
76.643393   -27.780028   1568.750000   1327.750000   3547.980
112.019970   -37.651691   1829.800000   514.270000   3529.240
83.329219   21.713119   605.610000   1177.210000   3443.370
96.003925   14.117290   758.680000   933.170000   3325.770
63.847291   -2.682260   1068.410000   1558.180000   3323.790
115.314681   27.132815   485.820000   489.300000   3264.780
69.995160   25.168573   531.130000   1464.280000   3159.600
101.198505   20.599044   628.860000   825.130000   3117.200
55.460972   -32.739343   1685.840000   1897.440000   3018.790
101.649606   -4.418527   1102.170000   831.200000   2911.890
97.769138   30.877217   396.960000   879.510000   2836.940
104.695930   -5.181132   1116.350000   772.050000   2824.260
94.188437   12.174837   795.970000   968.280000   2816.630
93.026376   -31.487709   1660.250000   983.850000   2700.200
114.165686   9.234079   851.980000   570.950000   2661.700
73.691027   24.417471   547.620000   1380.320000   2619.360
120.723474   12.096254   798.000000   409.840000   2561.570
116.123270   10.028488   837.110000   525.330000   2559.140
49.235262   -10.626877   1213.300000   1957.010000   2556.820
49.864316   -10.687036   1214.500000   1937.300000   2541.980
73.858191   -24.965285   1504.710000   1380.470000   2540.740
104.922005   26.508614   500.380000   734.490000   2534.230
66.481681   -38.007607   1831.670000   1622.940000   2460.630
95.566289   3.434540   958.540000   944.950000   2321.180
106.277719   -25.701471   1524.890000   709.450000   2162.970
83.903659   -15.030756   1300.540000   1162.950000   2103.850
82.799576   28.955238   444.020000   1196.080000   2087.220
121.788374   -10.789357   1222.160000   386.570000   2038.040
129.412751   -3.004445   1078.070000   183.940000   2024.140
100.793215   -18.134416   1363.530000   838.300000   2015.570
111.107843   21.889386   601.710000   610.820000   1933.070
121.309421   27.576011   475.370000   326.580000   1905.730
69.965307   15.402817   733.360000   1439.850000   1857.210
120.019321   -19.778325   1399.140000   404.750000   1674.100
107.095141   30.807573   398.340000   671.090000   1632.680
52.959814   -34.002890   1717.980000   1992.400000   1511.930
104.071659   42.676091   57.850000   688.230000   1506.090
84.024977   -33.192236   1702.410000   1179.000000   1464.660
114.089849   -7.930731   1167.830000   575.030000   1457.180
56.246007   -0.276132   1024.270000   1740.960000   1429.750
105.653280   6.245802   907.270000   752.140000   1391.650
94.044409   -12.021031   1243.340000   972.100000   1379.830
77.967293   -11.815374   1238.270000   1274.350000   1379.180
89.100790   -6.876746   1146.680000   1063.800000   1357.350
55.689827   22.661999   585.750000   1813.490000   1328.440
56.369352   22.617409   586.690000   1793.950000   1252.710
85.924276   -32.263400   1678.820000   1136.440000   1243.750
77.291910   -14.991803   1299.240000   1290.810000   1202.940
61.226456   -0.282149   1024.680000   1617.720000   1190.050
94.951705   22.533383   588.130000   948.060000   1187.720
83.287243   18.821355   665.400000   1175.750000   1181.020
133.356253   2.515863   977.200000   54.680000   1167.040
126.941725   -13.160246   1268.060000   237.830000   1163.730
122.307246   -2.314261   1064.870000   384.120000   1161.840
82.047297   8.985198   855.810000   1194.000000   1125.180
85.714637   31.741602   375.840000   1137.310000   1112.050
77.200439   14.448451   752.020000   1290.690000   1097.890
77.906535   11.281546   812.620000   1274.070000   1094.310
98.398679   -37.798116   1831.470000   853.810000   1052.890
104.775346   15.671323   728.450000   760.030000   1043.400
125.185506   27.904520   467.560000   208.950000   1042.330
51.089272   14.096271   758.400000   1909.640000   1033.830
127.520322   -37.414093   1826.550000   33.820000   1022.270
94.179723   37.868167   209.580000   948.430000   1007.170
105.662670   -0.226272   1025.770000   753.990000   1006.260
88.816029   -42.692208   1982.940000   1078.650000   1000.550
96.382354   -13.336868   1268.700000   927.600000   999.790
101.981495   -21.092828   1424.470000   810.350000   990.700
91.375289   -23.295803   1470.210000   1020.820000   977.180
112.665434   -1.609405   1051.380000   610.070000   953.390
110.891309   -13.269636   1268.570000   637.450000   935.390
120.638891   -31.524367   1665.530000   320.310000   933.230
70.430060   -31.778472   1664.250000   1483.530000   912.610
125.861242   34.383316   305.120000   126.180000   909.450
70.209271   31.224787   389.360000   1483.170000   820.860
70.664614   5.980579   911.040000   1413.880000   815.090
78.259844   9.233180   851.090000   1265.910000   798.120
129.693801   -0.148336   1025.750000   176.300000   728.080
78.322592   -9.758614   1199.550000   1265.880000   706.140
53.571405   -0.921743   1035.790000   1813.150000   624.170
56.107689   10.384680   828.960000   1755.660000   609.110
# File created at Tue Oct  8 13:02:30 2024 with IOLaueTools.py
# From: AH12_CMT_r14_0200_LT_0.dat
# Output Folder: /home/micha/lauetoolsgithub/LaueTools/LaueImages
# Calibration parameters
# dd     :   76.56
# xcen     :   1020.92
# ycen     :   1054.09
# xbet     :   0.389
# xgam     :   0.138
# pixelsize     :   0.0734
# CCDLabel     :   sCMOS
# framedim     :   [2018.0, 2016.0]
# detectordiameter     :   162.93332000000004
# kf_direction     :   Z>0