2theta chi X Y I
93.476488   22.340715   580.850000   971.850000   146.440
93.476624   -22.340670   1444.510000   974.440000   146.440
118.608957   23.943385   545.930000   411.190000   137.510
118.609021   -23.943545   1482.800000   414.000000   137.510
105.392592   0.000168   1013.340000   752.420000   116.870
80.000027   -0.000107   1011.920000   1227.120000   112.950
54.452014   20.929507   610.650000   1839.970000   112.180
54.452297   -20.929535   1409.500000   1842.360000   112.180
123.034711   0.000188   1014.530000   355.890000   107.760
96.042409   32.134533   352.540000   908.770000   102.080
96.042175   -32.134318   1673.190000   912.740000   102.080
113.799257   33.666270   311.850000   481.300000   97.880
113.799048   -33.666599   1716.460000   485.520000   97.880
135.460051   0.000083   1015.700000   -33.210000   95.950
71.608043   30.722467   388.870000   1445.380000   93.560
71.608371   -30.722690   1633.650000   1449.110000   93.560
89.615692   -13.655820   1267.610000   1050.180000   91.120
89.615589   13.655460   757.300000   1048.650000   91.120
107.753663   -14.259953   1281.100000   695.150000   90.540
107.753847   14.259690   745.940000   693.540000   90.540
121.372543   -14.918427   1295.600000   377.150000   84.840
121.372598   14.918646   733.340000   375.460000   84.840
65.761051   13.099765   767.450000   1525.300000   79.770
65.761151   -13.099690   1254.590000   1526.760000   79.770
97.923683   0.000140   1012.910000   895.830000   78.550
131.700209   15.639790   719.360000   62.820000   77.690
131.700144   -15.639733   1311.460000   64.600000   77.690
96.694221   37.323497   211.290000   884.570000   77.470
96.694347   -37.323555   1814.590000   889.380000   77.470
44.988381   0.000118   1009.340000   2085.190000   76.930
111.998832   0.000049   1013.750000   616.570000   76.380
110.434165   38.634731   171.550000   536.910000   75.270
110.434044   -38.634901   1856.420000   541.970000   75.270
79.118294   36.086581   247.570000   1289.280000   74.420
79.118211   -36.086614   1775.880000   1293.870000   74.420
107.487013   23.115662   564.100000   680.120000   72.260
107.486957   -23.115564   1463.010000   682.820000   72.260
75.915594   -21.613216   1426.910000   1326.290000   68.950
75.915904   21.613129   596.340000   1323.790000   68.950
131.769322   -0.000107   1015.310000   97.870000   66.590
101.428753   10.093942   825.870000   825.610000   66.300
101.428977   -10.093764   1200.370000   826.730000   66.300
87.361328   -9.784783   1193.390000   1091.810000   65.520
87.361481   9.784345   831.270000   1090.720000   65.520
112.867032   -10.423501   1207.650000   590.930000   64.340
112.866868   10.423460   820.010000   589.770000   64.340
127.491930   -24.828705   1504.140000   150.310000   64.300
127.492057   24.828706   526.170000   147.370000   64.300
57.696617   -0.000052   1010.490000   1703.140000   62.380
96.860188   40.488172   115.280000   873.130000   62.200
96.860192   -40.488007   1910.660000   878.520000   62.200
57.112038   -34.919127   1738.960000   1867.840000   61.840
57.112056   34.918846   281.050000   1863.460000   61.840
122.176186   -10.775136   1215.330000   366.910000   61.070
122.175993   10.774840   813.680000   365.710000   61.070
83.179322   -39.417089   1874.230000   1207.180000   60.830
83.179040   39.417134   149.740000   1202.010000   60.830
95.203538   28.104960   451.460000   931.960000   60.360
95.203566   -28.104616   1574.130000   935.330000   60.360
70.237413   9.493271   836.170000   1423.210000   59.910
70.237505   -9.493504   1186.490000   1424.260000   59.910
106.599280   28.893150   432.470000   681.910000   59.570
106.599221   -28.893191   1594.630000   685.400000   59.570
93.833596   0.000254   1012.680000   971.750000   58.800
81.437595   -27.355228   1554.630000   1221.620000   58.460
81.437673   27.355180   469.250000   1218.360000   58.460
129.805190   -11.150413   1223.490000   145.080000   57.340
129.805133   11.150745   806.840000   143.830000   57.340
116.008792   -29.722811   1616.370000   451.410000   57.330
116.008939   29.722985   412.130000   447.790000   57.330
115.011489   -0.000033   1013.950000   550.450000   56.540
102.778844   -17.435750   1343.660000   793.030000   56.390
102.778657   17.435666   682.790000   791.050000   56.390
91.282372   -16.981357   1333.330000   1018.540000   56.350
91.282064   16.981066   691.770000   1016.620000   56.350
66.662813   38.392826   181.890000   1615.490000   55.020
66.662688   -38.392847   1839.600000   1620.470000   55.020
112.404633   -17.914684   1354.460000   586.660000   54.880
112.404425   17.914562   673.230000   584.620000   54.880
123.807242   30.596852   390.300000   218.500000   54.410
123.807257   -30.596831   1639.580000   222.250000   54.410
77.622270   16.548825   700.200000   1281.280000   53.690
77.622313   -16.549061   1323.310000   1283.150000   53.690
120.472717   18.419594   663.050000   386.740000   52.550
120.472674   -18.419822   1365.830000   388.850000   52.550
65.023610   26.641315   485.970000   1585.840000   52.290
65.023722   -26.641625   1535.710000   1588.990000   52.290
97.396230   -7.800225   1156.900000   904.850000   51.950
97.395991   7.799881   868.880000   903.990000   51.950
96.874419   42.607502   45.790000   867.010000   51.880
96.874304   -42.607481   1980.190000   872.820000   51.880
107.151201   7.996334   865.580000   713.640000   51.300
107.151088   -7.996530   1161.340000   714.530000   51.300
85.687636   -41.672028   1946.300000   1150.920000   51.180
85.687696   41.672041   78.010000   1145.310000   51.180
85.941006   -7.613397   1152.560000   1117.740000   51.010
85.940874   7.613147   871.940000   1116.900000   51.010
129.767189   0.000185   1015.110000   162.700000   50.940
105.642014   -32.884773   1694.260000   693.150000   50.450
105.642175   32.884554   332.800000   689.060000   50.450
84.762216   -31.414432   1653.080000   1156.820000   50.080
84.762298   31.414421   371.190000   1152.970000   50.080
63.682312   -0.000031   1010.920000   1559.770000   50.050
127.268843   18.952754   652.200000   191.000000   49.880
127.268793   -18.952736   1377.850000   193.180000   49.880
115.444697   8.202579   862.060000   535.020000   49.730
115.444790   -8.202649   1165.930000   535.930000   49.730
103.172063   22.851874   569.830000   773.590000   48.650
103.172182   -22.851824   1456.720000   776.250000   48.650
72.551157   40.770055   108.320000   1474.030000   48.090
72.551124   -40.769823   1914.010000   1479.450000   48.090
72.595457   -7.435054   1148.220000   1373.830000   47.660
72.595404   7.434931   874.740000   1373.010000   47.660
122.512755   -8.419294   1170.710000   362.660000   47.660
122.512806   8.419777   858.310000   361.720000   47.660
111.481357   -23.385478   1469.450000   591.780000   47.520
111.481127   23.385426   558.210000   589.050000   47.520
82.197426   -21.850324   1432.700000   1198.320000   47.440
82.197650   21.850634   591.310000   1195.790000   47.440
49.974046   9.218820   840.410000   1929.740000   47.350
49.973932   -9.218578   1179.200000   1930.760000   47.350
61.636444   16.137668   708.070000   1629.110000   47.200
61.636341   -16.137815   1313.350000   1630.930000   47.200
101.021638   -0.000094   1013.090000   837.300000   47.060
91.258345   0.000139   1012.540000   1019.090000   46.870
109.453104   -0.000010   1013.590000   670.230000   46.250
99.333226   -13.951333   1274.250000   864.860000   45.910
99.333313   13.951117   751.770000   863.290000   45.910
# File created at Wed Oct 25 13:01:28 2023 with IOLaueTools.py
# From: /home/micha/lauetoolsgithub/LaueTools/calib_.dat
# Calibration parameters
# dd     :   77.08839147982877
# xcen     :   1012.45
# ycen     :   1049.9183356529525
# xbet     :   0.423
# xgam     :   0.172
# pixelsize     :   0.0734
# ypixelsize     :   0.0734